"Latest: Time (s)","Latest: Radiation (Counts)"
5,4
10,1
15,2
20,1
25,3
30,4
35,2
40,2
45,3
50,3
55,1
60,4
65,4
70,2
75,0
80,1
85,2
90,2
95,3
100,2
105,0
110,1
115,1
120,2
125,1
130,3
135,0
140,1
145,4
150,3
155,4
160,2
165,1
170,3
175,2
180,2
185,5
190,3
195,1
200,4
205,3
210,3
215,0
220,3
225,2
230,5
235,2
240,1
